'3ocv_653.cgd' 'Mar 23 2016 02:49' 'I'        120.    1  'TIME'    7  'RAW'
  Filename         Date            Scan       Mon    Prf  Base   #pts  Type    
Sample 3 10nmSiO2 15nmW in EC,dDEC, LiPF6          
 460    1  500  512 608 512   0   5.0000  0.00000 0.00000   0.00000    1 
 Collimation      Mosaic    Wavelength   T-Start   Incr.   H-field #Det    
  1       0.96000    0.09600    1.53600
  2       0.96000    0.09600    1.53600
  3       4.00000    0.40000    6.40000
  4      10.00000    1.00000   16.00000
  5       4.80000    0.48000    7.68000
  6       6.40000    0.64000   10.24000
 Mot:    Start       Step      End
     A4        A3        A1        A2        A5        A6     MIN      MONITOR      COUNTS 
          10           4        0.96        0.96         4.8         6.4 2.00      437565          79 
          11         4.4       1.056       1.056        5.28        7.04 2.00      474959          88 
          12         4.8       1.152       1.152        5.76        7.68 2.00      513859         121 
          13         5.2       1.248       1.248        6.24        8.32 2.00      551197         133 
          14         5.6       1.344       1.344        6.72        8.96 2.00      589575         148 
          15           6        1.44        1.44         7.2         9.6 2.00      625145         156 
          16         6.4       1.536       1.536        7.68       10.24 2.00      660416         190 
