'bare_574.cgd' 'Mar 22 2016 00:11' 'I'        240.    1  'TIME'   16  'RAW'
  Filename         Date            Scan       Mon    Prf  Base   #pts  Type    
sample3 W 15nmon SiO210nm in Ar                    
 460    1  500  512 608 512   0   5.0000  0.00000 0.00000   0.00000    1 
 Collimation      Mosaic    Wavelength   T-Start   Incr.   H-field #Det    
  1       2.00000    0.04000    2.60000
  2       2.00000    0.04000    2.60000
  3       5.00000    0.10000    6.50000
  4      10.00000    0.20000   13.00000
  5       6.00000    0.12000    7.80000
  6       8.00000    0.16000   10.40000
 Mot:    Start       Step      End
     A4        A3        A1        A2        A5        A6     MIN      MONITOR      COUNTS 
          10           5           2           2           6           8 4.00 1.61456e+06          96 
        10.2         5.1        2.04        2.04        6.12        8.16 4.00 1.64128e+06          88 
        10.4         5.2        2.08        2.08        6.24        8.32 4.00 1.66745e+06         117 
        10.6         5.3        2.12        2.12        6.36        8.48 4.00  1.6939e+06         132 
        10.8         5.4        2.16        2.16        6.48        8.64 4.00 1.71987e+06         126 
          11         5.5         2.2         2.2         6.6         8.8 4.00 1.74715e+06          91 
        11.2         5.6        2.24        2.24        6.72        8.96 4.00 1.77273e+06          74 
        11.4         5.7        2.28        2.28        6.84        9.12 4.00 1.79968e+06          84 
        11.6         5.8        2.32        2.32        6.96        9.28 4.00 1.82839e+06          97 
        11.8         5.9        2.36        2.36        7.08        9.44 4.00 1.85255e+06         101 
          12           6         2.4         2.4         7.2         9.6 4.00 1.88088e+06         100 
        12.2         6.1        2.44        2.44        7.32        9.76 4.00 1.90883e+06          64 
        12.4         6.2        2.48        2.48        7.44        9.92 4.00 1.93421e+06          72 
        12.6         6.3        2.52        2.52        7.56       10.08 4.00 1.96054e+06         107 
        12.8         6.4        2.56        2.56        7.68       10.24 4.00 1.98758e+06         109 
          13         6.5         2.6         2.6         7.8        10.4 4.00 2.01712e+06          93 
