'bare_542.cgd' 'Mar 21 2016 13:55' 'I'         30.    1  'TIME'   51  'RAW'
  Filename         Date            Scan       Mon    Prf  Base   #pts  Type    
sample3 W 15nmon SiO210nm in Ar                    
 460    1  500  512 608 512   0   5.0000  0.00000 0.00000   0.00000    1 
 Collimation      Mosaic    Wavelength   T-Start   Incr.   H-field #Det    
  1       0.10000    0.00000    0.10000
  2       0.10000    0.00000    0.10000
  3       0.00000    0.01000    0.50000
  4       0.00000    0.02000    1.00000
  5       0.60000    0.00000    0.60000
  6       0.80000    0.00000    0.80000
 Mot:    Start       Step      End
     A4        A3     MIN      MONITOR      COUNTS 
           0           0 0.50       16944       12409 
        0.02        0.01 0.50       16715        8937 
        0.04        0.02 0.50       16924        3099 
        0.06        0.03 0.50       16907        3704 
        0.08        0.04 0.50       16903        4738 
         0.1        0.05 0.50       16936        5843 
        0.12        0.06 0.50       16847        6916 
        0.14        0.07 0.50       16784        7870 
        0.16        0.08 0.50       17022        8923 
        0.18        0.09 0.50       17004       10098 
         0.2         0.1 0.50       16849       11044 
        0.22        0.11 0.50       16952       11878 
        0.24        0.12 0.50       16671       12852 
        0.26        0.13 0.50       16931       13584 
        0.28        0.14 0.50       16683       14319 
         0.3        0.15 0.50       17095       14962 
        0.32        0.16 0.50       16913       15494 
        0.34        0.17 0.50       17105       16308 
        0.36        0.18 0.50       17079       16435 
        0.38        0.19 0.50       17101       16560 
         0.4         0.2 0.50       16995       17010 
        0.42        0.21 0.50       16801       17074 
        0.44        0.22 0.50       16930       17157 
        0.46        0.23 0.50       17219       16801 
        0.48        0.24 0.50       16888       13388 
         0.5        0.25 0.50       16855       10830 
        0.52        0.26 0.50       16842        9542 
        0.54        0.27 0.50       16550        8307 
        0.56        0.28 0.50       16661        7001 
        0.58        0.29 0.50       16887        6276 
         0.6         0.3 0.50       16856        5431 
        0.62        0.31 0.50       16786        5009 
        0.64        0.32 0.50       16994        4132 
        0.66        0.33 0.50       16688        3720 
        0.68        0.34 0.50       16674        3140 
         0.7        0.35 0.50       16824        2839 
        0.72        0.36 0.50       16797        2443 
        0.74        0.37 0.50       16875        2074 
        0.76        0.38 0.50       16830        1703 
        0.78        0.39 0.50       16924        1527 
         0.8         0.4 0.50       16877        1307 
        0.82        0.41 0.50       16927        1060 
        0.84        0.42 0.50       16786         906 
        0.86        0.43 0.50       16941         846 
        0.88        0.44 0.50       17064         708 
         0.9        0.45 0.50       16779         543 
        0.92        0.46 0.50       16838         423 
        0.94        0.47 0.50       16966         358 
        0.96        0.48 0.50       16892         281 
        0.98        0.49 0.50       17043         232 
           1         0.5 0.50       17036         179 
