'bare_565.cgd' 'Mar 21 2016 21:46' 'I'        240.    1  'TIME'   25  'RAW'
  Filename         Date            Scan       Mon    Prf  Base   #pts  Type    
sample3 W 15nmon SiO210nm in Ar                    
 460    1  500  512 608 512   0   5.0000  0.00000 0.00000   0.00000    1 
 Collimation      Mosaic    Wavelength   T-Start   Incr.   H-field #Det    
  1       1.60000    0.04000    2.56000
  2       1.60000    0.04000    2.56000
  3       4.00000    0.10000    6.40000
  4       8.00000    0.20000   12.80000
  5       4.80000    0.12000    7.68000
  6       6.40000    0.16000   10.24000
 Mot:    Start       Step      End
     A4        A3        A1        A2        A5        A6     MIN      MONITOR      COUNTS 
           8           4         1.6         1.6         4.8         6.4 4.00 1.36533e+06         109 
         8.2         4.1        1.64        1.64        4.92        6.56 4.00 1.39277e+06         163 
         8.4         4.2        1.68        1.68        5.04        6.72 4.00 1.41896e+06         188 
         8.6         4.3        1.72        1.72        5.16        6.88 4.00 1.44188e+06         143 
         8.8         4.4        1.76        1.76        5.28        7.04 4.00 1.46883e+06          97 
           9         4.5         1.8         1.8         5.4         7.2 4.00 1.48931e+06          82 
         9.2         4.6        1.84        1.84        5.52        7.36 4.00 1.51366e+06         112 
         9.4         4.7        1.88        1.88        5.64        7.52 4.00 1.54388e+06         133 
         9.6         4.8        1.92        1.92        5.76        7.68 4.00 1.56456e+06         129 
         9.8         4.9        1.96        1.96        5.88        7.84 4.00 1.59102e+06         111 
          10           5           2           2           6           8 4.00 1.61555e+06          82 
        10.2         5.1        2.04        2.04        6.12        8.16 4.00 1.64246e+06          73 
        10.4         5.2        2.08        2.08        6.24        8.32 4.00 1.66866e+06          97 
        10.6         5.3        2.12        2.12        6.36        8.48 4.00  1.6962e+06         122 
        10.8         5.4        2.16        2.16        6.48        8.64 4.00 1.72238e+06         108 
          11         5.5         2.2         2.2         6.6         8.8 4.00  1.7488e+06          91 
        11.2         5.6        2.24        2.24        6.72        8.96 4.00  1.7733e+06          85 
        11.4         5.7        2.28        2.28        6.84        9.12 4.00 1.80269e+06          74 
        11.6         5.8        2.32        2.32        6.96        9.28 4.00 1.82835e+06          97 
        11.8         5.9        2.36        2.36        7.08        9.44 4.00  1.8553e+06          91 
          12           6         2.4         2.4         7.2         9.6 4.00 1.88235e+06          78 
        12.2         6.1        2.44        2.44        7.32        9.76 4.00 1.90878e+06          83 
        12.4         6.2        2.48        2.48        7.44        9.92 4.00  1.9335e+06          81 
        12.6         6.3        2.52        2.52        7.56       10.08 4.00 1.96243e+06         103 
        12.8         6.4        2.56        2.56        7.68       10.24 4.00  1.9934e+06         105 
