'4elt_801.cgd' 'Mar 24 2016 12:31' 'I'      80000.    1  'NEUT'    6  'RAW'
  Filename         Date            Scan       Mon    Prf  Base   #pts  Type    
slit scan 4 10x and 5.5x attenuator                
 460    1  500  512 608 512   0   5.0000  0.00000 0.00000   0.00000    1 
 Collimation      Mosaic    Wavelength   T-Start   Incr.   H-field #Det    
  1       1.20000    0.07200    1.56000
  2       1.20000    0.07200    1.56000
  3       0.00000    0.00000    0.00000
  4       0.00000    0.00000    0.00000
  5       6.00000    0.36000    7.80000
  6       8.00000    0.48000   10.40000
 Mot:    Start       Step      End
     A1        A2        A5        A6     MIN      MONITOR      COUNTS 
         1.2         1.2           6           8 0.30       80000       30294 
       1.272       1.272        6.36        8.48 0.29       80000       32310 
       1.344       1.344        6.72        8.96 0.27       80000       34210 
       1.416       1.416        7.08        9.44 0.26       80000       36125 
       1.488       1.488        7.44        9.92 0.25       80000       37813 
        1.56        1.56         7.8        10.4 0.24       80000       39486 
